Jan. 11, 2012   17:21:10
Amperometric i-t Curve
File: lr100
Data Source:  Experiment
Instrument Model:  CHI760C
Header: 
Note: 

Init E (V) = 0.6
Sample Interval (s) = 0.1
Run Time (sec) = 120
Quiet Time (sec) = 0
Sensitivity (A/V) = 1e-6


Time/sec, i1/A, i2/A

1.000e-1, 9.453e-8, 1.177e-7
2.000e-1, 8.701e-8, 1.084e-7
3.000e-1, 8.142e-8, 1.012e-7
4.000e-1, 7.702e-8, 9.550e-8
5.000e-1, 7.352e-8, 9.087e-8
6.000e-1, 7.055e-8, 8.704e-8
7.000e-1, 6.807e-8, 8.377e-8
8.000e-1, 6.596e-8, 8.101e-8
9.000e-1, 6.410e-8, 7.856e-8
1.000e+0, 6.247e-8, 7.639e-8
1.100e+0, 6.107e-8, 7.444e-8
1.200e+0, 5.976e-8, 7.267e-8
1.300e+0, 5.862e-8, 7.118e-8
1.400e+0, 5.757e-8, 6.970e-8
1.500e+0, 5.661e-8, 6.844e-8
1.600e+0, 5.578e-8, 6.727e-8
1.700e+0, 5.498e-8, 6.618e-8
1.800e+0, 5.422e-8, 6.519e-8
1.900e+0, 5.356e-8, 6.429e-8
2.000e+0, 5.290e-8, 6.342e-8
2.100e+0, 5.232e-8, 6.260e-8
2.200e+0, 5.179e-8, 6.190e-8
2.300e+0, 5.126e-8, 6.117e-8
2.400e+0, 5.082e-8, 6.052e-8
2.500e+0, 5.038e-8, 5.988e-8
2.600e+0, 4.992e-8, 5.928e-8
2.700e+0, 4.955e-8, 5.879e-8
2.800e+0, 4.914e-8, 5.822e-8
2.900e+0, 4.880e-8, 5.777e-8
3.000e+0, 4.848e-8, 5.729e-8
3.100e+0, 4.814e-8, 5.686e-8
3.200e+0, 4.785e-8, 5.646e-8
3.300e+0, 4.758e-8, 5.608e-8
3.400e+0, 4.726e-8, 5.569e-8
3.500e+0, 4.703e-8, 5.535e-8
3.600e+0, 4.678e-8, 5.503e-8
3.700e+0, 4.653e-8, 5.472e-8
3.800e+0, 4.631e-8, 5.444e-8
3.900e+0, 4.606e-8, 5.418e-8
4.000e+0, 4.587e-8, 5.390e-8
4.100e+0, 4.567e-8, 5.368e-8
4.200e+0, 4.545e-8, 5.338e-8
4.300e+0, 4.526e-8, 5.318e-8
4.400e+0, 4.507e-8, 5.295e-8
4.500e+0, 4.487e-8, 5.273e-8
4.600e+0, 4.473e-8, 5.256e-8
4.700e+0, 4.454e-8, 5.233e-8
4.800e+0, 4.436e-8, 5.217e-8
4.900e+0, 4.423e-8, 5.202e-8
5.000e+0, 4.406e-8, 5.184e-8
5.100e+0, 4.391e-8, 5.172e-8
5.200e+0, 4.377e-8, 5.153e-8
5.300e+0, 4.361e-8, 5.135e-8
5.400e+0, 4.348e-8, 5.124e-8
5.500e+0, 4.334e-8, 5.109e-8
5.600e+0, 4.319e-8, 5.095e-8
5.700e+0, 4.308e-8, 5.090e-8
5.800e+0, 4.294e-8, 5.073e-8
5.900e+0, 4.283e-8, 5.067e-8
6.000e+0, 4.272e-8, 5.056e-8
6.100e+0, 4.256e-8, 5.044e-8
6.200e+0, 4.246e-8, 5.038e-8
6.300e+0, 4.236e-8, 5.026e-8
6.400e+0, 4.225e-8, 5.019e-8
6.500e+0, 4.214e-8, 5.012e-8
6.600e+0, 4.203e-8, 5.004e-8
6.700e+0, 4.192e-8, 4.998e-8
6.800e+0, 4.183e-8, 4.994e-8
6.900e+0, 4.171e-8, 4.984e-8
7.000e+0, 4.160e-8, 4.977e-8
7.100e+0, 4.152e-8, 4.972e-8
7.200e+0, 4.138e-8, 4.964e-8
7.300e+0, 4.130e-8, 4.962e-8
7.400e+0, 4.120e-8, 4.954e-8
7.500e+0, 4.108e-8, 4.949e-8
7.600e+0, 4.102e-8, 4.947e-8
7.700e+0, 4.092e-8, 4.939e-8
7.800e+0, 4.083e-8, 4.933e-8
7.900e+0, 4.075e-8, 4.934e-8
8.000e+0, 4.064e-8, 4.927e-8
8.100e+0, 4.057e-8, 4.926e-8
8.200e+0, 4.048e-8, 4.919e-8
8.300e+0, 4.038e-8, 4.916e-8
8.400e+0, 4.030e-8, 4.915e-8
8.500e+0, 4.021e-8, 4.908e-8
8.600e+0, 4.010e-8, 4.905e-8
8.700e+0, 4.004e-8, 4.904e-8
8.800e+0, 3.995e-8, 4.897e-8
8.900e+0, 3.987e-8, 4.897e-8
9.000e+0, 3.980e-8, 4.894e-8
9.100e+0, 3.968e-8, 4.890e-8
9.200e+0, 3.964e-8, 4.889e-8
9.300e+0, 3.956e-8, 4.883e-8
9.400e+0, 3.946e-8, 4.879e-8
9.500e+0, 3.941e-8, 4.875e-8
9.600e+0, 3.933e-8, 4.872e-8
9.700e+0, 3.925e-8, 4.871e-8
9.800e+0, 3.920e-8, 4.867e-8
9.900e+0, 3.908e-8, 4.861e-8
1.000e+1, 3.902e-8, 4.860e-8
1.010e+1, 3.897e-8, 4.857e-8
1.020e+1, 3.886e-8, 4.850e-8
1.030e+1, 3.882e-8, 4.854e-8
1.040e+1, 3.875e-8, 4.844e-8
1.050e+1, 3.867e-8, 4.844e-8
1.060e+1, 3.863e-8, 4.837e-8
1.070e+1, 3.854e-8, 4.836e-8
1.080e+1, 3.849e-8, 4.835e-8
1.090e+1, 3.843e-8, 4.829e-8
1.100e+1, 3.835e-8, 4.825e-8
1.110e+1, 3.830e-8, 4.824e-8
1.120e+1, 3.823e-8, 4.821e-8
1.130e+1, 3.817e-8, 4.814e-8
1.140e+1, 3.813e-8, 4.811e-8
1.150e+1, 3.806e-8, 4.805e-8
1.160e+1, 3.801e-8, 4.805e-8
1.170e+1, 3.797e-8, 4.800e-8
1.180e+1, 3.790e-8, 4.793e-8
1.190e+1, 3.784e-8, 4.791e-8
1.200e+1, 3.781e-8, 4.782e-8
1.210e+1, 3.773e-8, 4.775e-8
1.220e+1, 3.771e-8, 4.775e-8
1.230e+1, 3.765e-8, 4.768e-8
1.240e+1, 3.759e-8, 4.762e-8
1.250e+1, 3.757e-8, 4.761e-8
1.260e+1, 3.751e-8, 4.750e-8
1.270e+1, 3.746e-8, 4.746e-8
1.280e+1, 3.744e-8, 4.743e-8
1.290e+1, 3.736e-8, 4.737e-8
1.300e+1, 3.736e-8, 4.735e-8
1.310e+1, 3.731e-8, 4.725e-8
1.320e+1, 3.726e-8, 4.721e-8
1.330e+1, 3.725e-8, 4.715e-8
1.340e+1, 3.720e-8, 4.706e-8
1.350e+1, 3.715e-8, 4.701e-8
1.360e+1, 3.713e-8, 4.696e-8
1.370e+1, 3.708e-8, 4.688e-8
1.380e+1, 3.705e-8, 4.687e-8
1.390e+1, 3.703e-8, 4.681e-8
1.400e+1, 3.698e-8, 4.673e-8
1.410e+1, 3.697e-8, 4.667e-8
1.420e+1, 3.695e-8, 4.658e-8
1.430e+1, 3.689e-8, 4.652e-8
1.440e+1, 3.691e-8, 4.647e-8
1.450e+1, 3.686e-8, 4.638e-8
1.460e+1, 3.683e-8, 4.632e-8
1.470e+1, 3.684e-8, 4.626e-8
1.480e+1, 3.677e-8, 4.619e-8
1.490e+1, 3.677e-8, 4.615e-8
1.500e+1, 3.676e-8, 4.608e-8
1.510e+1, 3.672e-8, 4.600e-8
1.520e+1, 3.672e-8, 4.594e-8
1.530e+1, 3.671e-8, 4.586e-8
1.540e+1, 3.667e-8, 4.576e-8
1.550e+1, 3.666e-8, 4.574e-8
1.560e+1, 3.664e-8, 4.563e-8
1.570e+1, 3.663e-8, 4.559e-8
1.580e+1, 3.665e-8, 4.548e-8
1.590e+1, 3.659e-8, 4.541e-8
1.600e+1, 3.661e-8, 4.536e-8
1.610e+1, 3.660e-8, 4.525e-8
1.620e+1, 3.657e-8, 4.519e-8
1.630e+1, 3.660e-8, 4.515e-8
1.640e+1, 3.658e-8, 4.501e-8
1.650e+1, 3.656e-8, 4.495e-8
1.660e+1, 3.656e-8, 4.492e-8
1.670e+1, 3.654e-8, 4.483e-8
1.680e+1, 3.654e-8, 4.478e-8
1.690e+1, 3.656e-8, 4.467e-8
1.700e+1, 3.653e-8, 4.457e-8
1.710e+1, 3.657e-8, 4.456e-8
1.720e+1, 3.655e-8, 4.444e-8
1.730e+1, 3.654e-8, 4.440e-8
1.740e+1, 3.656e-8, 4.436e-8
1.750e+1, 3.654e-8, 4.424e-8
1.760e+1, 3.654e-8, 4.418e-8
1.770e+1, 3.656e-8, 4.408e-8
1.780e+1, 3.656e-8, 4.399e-8
1.790e+1, 3.657e-8, 4.400e-8
1.800e+1, 3.658e-8, 4.393e-8
1.810e+1, 3.656e-8, 4.382e-8
1.820e+1, 3.659e-8, 4.374e-8
1.830e+1, 3.658e-8, 4.368e-8
1.840e+1, 3.659e-8, 4.362e-8
1.850e+1, 3.661e-8, 4.358e-8
1.860e+1, 3.661e-8, 4.348e-8
1.870e+1, 3.662e-8, 4.342e-8
1.880e+1, 3.664e-8, 4.335e-8
1.890e+1, 3.663e-8, 4.330e-8
1.900e+1, 3.665e-8, 4.324e-8
1.910e+1, 3.666e-8, 4.317e-8
1.920e+1, 3.665e-8, 4.312e-8
1.930e+1, 3.669e-8, 4.308e-8
1.940e+1, 3.668e-8, 4.298e-8
1.950e+1, 3.667e-8, 4.299e-8
1.960e+1, 3.670e-8, 4.294e-8
1.970e+1, 3.669e-8, 4.287e-8
1.980e+1, 3.672e-8, 4.283e-8
1.990e+1, 3.674e-8, 4.280e-8
2.000e+1, 3.671e-8, 4.276e-8
2.010e+1, 3.676e-8, 4.276e-8
2.020e+1, 3.677e-8, 4.269e-8
2.030e+1, 3.678e-8, 4.263e-8
2.040e+1, 3.680e-8, 4.261e-8
2.050e+1, 3.680e-8, 4.253e-8
2.060e+1, 3.683e-8, 4.253e-8
2.070e+1, 3.683e-8, 4.252e-8
2.080e+1, 3.683e-8, 4.247e-8
2.090e+1, 3.685e-8, 4.245e-8
2.100e+1, 3.687e-8, 4.241e-8
2.110e+1, 3.685e-8, 4.240e-8
2.120e+1, 3.688e-8, 4.239e-8
2.130e+1, 3.687e-8, 4.235e-8
2.140e+1, 3.689e-8, 4.233e-8
2.150e+1, 3.692e-8, 4.229e-8
2.160e+1, 3.690e-8, 4.227e-8
2.170e+1, 3.692e-8, 4.228e-8
2.180e+1, 3.694e-8, 4.228e-8
2.190e+1, 3.692e-8, 4.223e-8
2.200e+1, 3.695e-8, 4.226e-8
2.210e+1, 3.694e-8, 4.221e-8
2.220e+1, 3.694e-8, 4.220e-8
2.230e+1, 3.696e-8, 4.222e-8
2.240e+1, 3.696e-8, 4.218e-8
2.250e+1, 3.697e-8, 4.222e-8
2.260e+1, 3.698e-8, 4.222e-8
2.270e+1, 3.698e-8, 4.218e-8
2.280e+1, 3.699e-8, 4.222e-8
2.290e+1, 3.698e-8, 4.219e-8
2.300e+1, 3.697e-8, 4.218e-8
2.310e+1, 3.700e-8, 4.226e-8
2.320e+1, 3.700e-8, 4.221e-8
2.330e+1, 3.699e-8, 4.222e-8
2.340e+1, 3.700e-8, 4.222e-8
2.350e+1, 3.699e-8, 4.223e-8
2.360e+1, 3.701e-8, 4.226e-8
2.370e+1, 3.701e-8, 4.229e-8
2.380e+1, 3.698e-8, 4.229e-8
2.390e+1, 3.699e-8, 4.234e-8
2.400e+1, 3.699e-8, 4.232e-8
2.410e+1, 3.697e-8, 4.235e-8
2.420e+1, 3.701e-8, 4.241e-8
2.430e+1, 3.698e-8, 4.238e-8
2.440e+1, 3.699e-8, 4.243e-8
2.450e+1, 3.700e-8, 4.245e-8
2.460e+1, 3.697e-8, 4.244e-8
2.470e+1, 3.698e-8, 4.250e-8
2.480e+1, 3.697e-8, 4.249e-8
2.490e+1, 3.692e-8, 4.250e-8
2.500e+1, 3.694e-8, 4.257e-8
2.510e+1, 3.692e-8, 4.259e-8
2.520e+1, 3.693e-8, 4.264e-8
2.530e+1, 3.692e-8, 4.264e-8
2.540e+1, 3.690e-8, 4.265e-8
2.550e+1, 3.691e-8, 4.272e-8
2.560e+1, 3.688e-8, 4.272e-8
2.570e+1, 3.686e-8, 4.273e-8
2.580e+1, 3.687e-8, 4.281e-8
2.590e+1, 3.686e-8, 4.278e-8
2.600e+1, 3.684e-8, 4.283e-8
2.610e+1, 3.684e-8, 4.286e-8
2.620e+1, 3.682e-8, 4.290e-8
2.630e+1, 3.679e-8, 4.296e-8
2.640e+1, 3.678e-8, 4.296e-8
2.650e+1, 3.676e-8, 4.296e-8
2.660e+1, 3.676e-8, 4.299e-8
2.670e+1, 3.674e-8, 4.301e-8
2.680e+1, 3.671e-8, 4.305e-8
2.690e+1, 3.671e-8, 4.309e-8
2.700e+1, 3.668e-8, 4.311e-8
2.710e+1, 3.666e-8, 4.313e-8
2.720e+1, 3.667e-8, 4.316e-8
2.730e+1, 3.661e-8, 4.315e-8
2.740e+1, 3.659e-8, 4.323e-8
2.750e+1, 3.660e-8, 4.322e-8
2.760e+1, 3.654e-8, 4.325e-8
2.770e+1, 3.654e-8, 4.332e-8
2.780e+1, 3.651e-8, 4.334e-8
2.790e+1, 3.648e-8, 4.338e-8
2.800e+1, 3.649e-8, 4.344e-8
2.810e+1, 3.644e-8, 4.345e-8
2.820e+1, 3.643e-8, 4.349e-8
2.830e+1, 3.642e-8, 4.350e-8
2.840e+1, 3.640e-8, 4.351e-8
2.850e+1, 3.637e-8, 4.354e-8
2.860e+1, 3.636e-8, 4.357e-8
2.870e+1, 3.632e-8, 4.356e-8
2.880e+1, 3.633e-8, 4.359e-8
2.890e+1, 3.629e-8, 4.359e-8
2.900e+1, 3.629e-8, 4.363e-8
2.910e+1, 3.631e-8, 4.366e-8
2.920e+1, 3.628e-8, 4.366e-8
2.930e+1, 3.629e-8, 4.369e-8
2.940e+1, 3.629e-8, 4.370e-8
2.950e+1, 3.624e-8, 4.366e-8
2.960e+1, 3.625e-8, 4.373e-8
2.970e+1, 3.621e-8, 4.371e-8
2.980e+1, 3.620e-8, 4.375e-8
2.990e+1, 3.621e-8, 4.377e-8
3.000e+1, 3.617e-8, 4.377e-8
3.010e+1, 3.614e-8, 4.377e-8
3.020e+1, 3.611e-8, 4.381e-8
3.030e+1, 3.607e-8, 4.379e-8
3.040e+1, 3.611e-8, 4.388e-8
3.050e+1, 3.607e-8, 4.386e-8
3.060e+1, 3.601e-8, 4.385e-8
3.070e+1, 3.602e-8, 4.387e-8
3.080e+1, 3.599e-8, 4.385e-8
3.090e+1, 3.596e-8, 4.388e-8
3.100e+1, 3.595e-8, 4.392e-8
3.110e+1, 3.590e-8, 4.391e-8
3.120e+1, 3.589e-8, 4.396e-8
3.130e+1, 3.587e-8, 4.397e-8
3.140e+1, 3.581e-8, 4.394e-8
3.150e+1, 3.583e-8, 4.397e-8
3.160e+1, 3.579e-8, 4.401e-8
3.170e+1, 3.575e-8, 4.399e-8
3.180e+1, 3.574e-8, 4.403e-8
3.190e+1, 3.571e-8, 4.400e-8
3.200e+1, 3.570e-8, 4.402e-8
3.210e+1, 3.569e-8, 4.404e-8
3.220e+1, 3.564e-8, 4.401e-8
3.230e+1, 3.563e-8, 4.407e-8
3.240e+1, 3.561e-8, 4.405e-8
3.250e+1, 3.557e-8, 4.404e-8
3.260e+1, 3.558e-8, 4.405e-8
3.270e+1, 3.553e-8, 4.403e-8
3.280e+1, 3.550e-8, 4.405e-8
3.290e+1, 3.549e-8, 4.407e-8
3.300e+1, 3.544e-8, 4.401e-8
3.310e+1, 3.543e-8, 4.404e-8
3.320e+1, 3.542e-8, 4.403e-8
3.330e+1, 3.539e-8, 4.400e-8
3.340e+1, 3.538e-8, 4.400e-8
3.350e+1, 3.533e-8, 4.400e-8
3.360e+1, 3.531e-8, 4.398e-8
3.370e+1, 3.531e-8, 4.402e-8
3.380e+1, 3.528e-8, 4.402e-8
3.390e+1, 3.526e-8, 4.398e-8
3.400e+1, 3.525e-8, 4.397e-8
3.410e+1, 3.520e-8, 4.392e-8
3.420e+1, 3.522e-8, 4.394e-8
3.430e+1, 3.521e-8, 4.390e-8
3.440e+1, 3.518e-8, 4.385e-8
3.450e+1, 3.518e-8, 4.386e-8
3.460e+1, 3.516e-8, 4.381e-8
3.470e+1, 3.514e-8, 4.377e-8
3.480e+1, 3.516e-8, 4.373e-8
3.490e+1, 3.512e-8, 4.369e-8
3.500e+1, 3.514e-8, 4.371e-8
3.510e+1, 3.515e-8, 4.364e-8
3.520e+1, 3.512e-8, 4.359e-8
3.530e+1, 3.512e-8, 4.357e-8
3.540e+1, 3.512e-8, 4.350e-8
3.550e+1, 3.512e-8, 4.348e-8
3.560e+1, 3.514e-8, 4.347e-8
3.570e+1, 3.510e-8, 4.340e-8
3.580e+1, 3.511e-8, 4.339e-8
3.590e+1, 3.512e-8, 4.338e-8
3.600e+1, 3.510e-8, 4.329e-8
3.610e+1, 3.512e-8, 4.329e-8
3.620e+1, 3.512e-8, 4.325e-8
3.630e+1, 3.509e-8, 4.318e-8
3.640e+1, 3.511e-8, 4.319e-8
3.650e+1, 3.510e-8, 4.309e-8
3.660e+1, 3.509e-8, 4.307e-8
3.670e+1, 3.514e-8, 4.303e-8
3.680e+1, 3.511e-8, 4.295e-8
3.690e+1, 3.512e-8, 4.294e-8
3.700e+1, 3.515e-8, 4.288e-8
3.710e+1, 3.512e-8, 4.280e-8
3.720e+1, 3.516e-8, 4.279e-8
3.730e+1, 3.514e-8, 4.276e-8
3.740e+1, 3.515e-8, 4.272e-8
3.750e+1, 3.517e-8, 4.269e-8
3.760e+1, 3.518e-8, 4.262e-8
3.770e+1, 3.518e-8, 4.256e-8
3.780e+1, 3.522e-8, 4.251e-8
3.790e+1, 3.519e-8, 4.243e-8
3.800e+1, 3.522e-8, 4.244e-8
3.810e+1, 3.525e-8, 4.240e-8
3.820e+1, 3.523e-8, 4.237e-8
3.830e+1, 3.527e-8, 4.234e-8
3.840e+1, 3.526e-8, 4.225e-8
3.850e+1, 3.528e-8, 4.223e-8
3.860e+1, 3.532e-8, 4.219e-8
3.870e+1, 3.529e-8, 4.213e-8
3.880e+1, 3.531e-8, 4.209e-8
3.890e+1, 3.536e-8, 4.207e-8
3.900e+1, 3.533e-8, 4.199e-8
3.910e+1, 3.539e-8, 4.198e-8
3.920e+1, 3.539e-8, 4.192e-8
3.930e+1, 3.539e-8, 4.185e-8
3.940e+1, 3.543e-8, 4.188e-8
3.950e+1, 3.541e-8, 4.182e-8
3.960e+1, 3.544e-8, 4.176e-8
3.970e+1, 3.547e-8, 4.171e-8
3.980e+1, 3.547e-8, 4.166e-8
3.990e+1, 3.549e-8, 4.167e-8
4.000e+1, 3.552e-8, 4.158e-8
4.010e+1, 3.551e-8, 4.157e-8
4.020e+1, 3.556e-8, 4.152e-8
4.030e+1, 3.556e-8, 4.147e-8
4.040e+1, 3.558e-8, 4.141e-8
4.050e+1, 3.561e-8, 4.143e-8
4.060e+1, 3.562e-8, 4.134e-8
4.070e+1, 3.564e-8, 4.129e-8
4.080e+1, 3.568e-8, 4.123e-8
4.090e+1, 3.567e-8, 4.118e-8
4.100e+1, 3.570e-8, 4.117e-8
4.110e+1, 3.570e-8, 4.114e-8
4.120e+1, 3.572e-8, 4.110e-8
4.130e+1, 3.575e-8, 4.114e-8
4.140e+1, 3.575e-8, 4.105e-8
4.150e+1, 3.576e-8, 4.099e-8
4.160e+1, 3.581e-8, 4.098e-8
4.170e+1, 3.580e-8, 4.092e-8
4.180e+1, 3.584e-8, 4.093e-8
4.190e+1, 3.586e-8, 4.087e-8
4.200e+1, 3.585e-8, 4.085e-8
4.210e+1, 3.591e-8, 4.082e-8
4.220e+1, 3.592e-8, 4.078e-8
4.230e+1, 3.592e-8, 4.075e-8
4.240e+1, 3.597e-8, 4.078e-8
4.250e+1, 3.596e-8, 4.071e-8
4.260e+1, 3.599e-8, 4.066e-8
4.270e+1, 3.601e-8, 4.066e-8
4.280e+1, 3.603e-8, 4.058e-8
4.290e+1, 3.605e-8, 4.058e-8
4.300e+1, 3.608e-8, 4.056e-8
4.310e+1, 3.607e-8, 4.054e-8
4.320e+1, 3.612e-8, 4.052e-8
4.330e+1, 3.613e-8, 4.049e-8
4.340e+1, 3.613e-8, 4.047e-8
4.350e+1, 3.617e-8, 4.047e-8
4.360e+1, 3.616e-8, 4.043e-8
4.370e+1, 3.620e-8, 4.044e-8
4.380e+1, 3.622e-8, 4.041e-8
4.390e+1, 3.623e-8, 4.039e-8
4.400e+1, 3.626e-8, 4.037e-8
4.410e+1, 3.627e-8, 4.034e-8
4.420e+1, 3.627e-8, 4.035e-8
4.430e+1, 3.632e-8, 4.033e-8
4.440e+1, 3.631e-8, 4.030e-8
4.450e+1, 3.633e-8, 4.029e-8
4.460e+1, 3.636e-8, 4.029e-8
4.470e+1, 3.635e-8, 4.028e-8
4.480e+1, 3.640e-8, 4.031e-8
4.490e+1, 3.642e-8, 4.029e-8
4.500e+1, 3.641e-8, 4.027e-8
4.510e+1, 3.646e-8, 4.025e-8
4.520e+1, 3.646e-8, 4.025e-8
4.530e+1, 3.647e-8, 4.026e-8
4.540e+1, 3.652e-8, 4.027e-8
4.550e+1, 3.652e-8, 4.027e-8
4.560e+1, 3.652e-8, 4.030e-8
4.570e+1, 3.654e-8, 4.029e-8
4.580e+1, 3.654e-8, 4.027e-8
4.590e+1, 3.658e-8, 4.032e-8
4.600e+1, 3.659e-8, 4.027e-8
4.610e+1, 3.659e-8, 4.027e-8
4.620e+1, 3.663e-8, 4.028e-8
4.630e+1, 3.662e-8, 4.026e-8
4.640e+1, 3.663e-8, 4.031e-8
4.650e+1, 3.667e-8, 4.031e-8
4.660e+1, 3.665e-8, 4.032e-8
4.670e+1, 3.669e-8, 4.036e-8
4.680e+1, 3.670e-8, 4.034e-8
4.690e+1, 3.669e-8, 4.036e-8
4.700e+1, 3.672e-8, 4.039e-8
4.710e+1, 3.673e-8, 4.039e-8
4.720e+1, 3.673e-8, 4.038e-8
4.730e+1, 3.678e-8, 4.042e-8
4.740e+1, 3.675e-8, 4.038e-8
4.750e+1, 3.677e-8, 4.041e-8
4.760e+1, 3.679e-8, 4.044e-8
4.770e+1, 3.679e-8, 4.042e-8
4.780e+1, 3.684e-8, 4.049e-8
4.790e+1, 3.685e-8, 4.049e-8
4.800e+1, 3.685e-8, 4.050e-8
4.810e+1, 3.690e-8, 4.056e-8
4.820e+1, 3.689e-8, 4.053e-8
4.830e+1, 3.691e-8, 4.059e-8
4.840e+1, 3.696e-8, 4.059e-8
4.850e+1, 3.694e-8, 4.058e-8
4.860e+1, 3.698e-8, 4.061e-8
4.870e+1, 3.699e-8, 4.063e-8
4.880e+1, 3.697e-8, 4.060e-8
4.890e+1, 3.702e-8, 4.066e-8
4.900e+1, 3.702e-8, 4.065e-8
4.910e+1, 3.702e-8, 4.069e-8
4.920e+1, 3.706e-8, 4.071e-8
4.930e+1, 3.704e-8, 4.073e-8
4.940e+1, 3.705e-8, 4.078e-8
4.950e+1, 3.707e-8, 4.082e-8
4.960e+1, 3.705e-8, 4.082e-8
4.970e+1, 3.709e-8, 4.092e-8
4.980e+1, 3.708e-8, 4.089e-8
4.990e+1, 3.707e-8, 4.093e-8
5.000e+1, 3.712e-8, 4.100e-8
5.010e+1, 3.709e-8, 4.098e-8
5.020e+1, 3.710e-8, 4.104e-8
5.030e+1, 3.711e-8, 4.106e-8
5.040e+1, 3.709e-8, 4.107e-8
5.050e+1, 3.710e-8, 4.114e-8
5.060e+1, 3.710e-8, 4.119e-8
5.070e+1, 3.707e-8, 4.121e-8
5.080e+1, 3.711e-8, 4.125e-8
5.090e+1, 3.708e-8, 4.127e-8
5.100e+1, 3.708e-8, 4.128e-8
5.110e+1, 3.710e-8, 4.136e-8
5.120e+1, 3.707e-8, 4.141e-8
5.130e+1, 3.707e-8, 4.145e-8
5.140e+1, 3.710e-8, 4.148e-8
5.150e+1, 3.706e-8, 4.148e-8
5.160e+1, 3.709e-8, 4.157e-8
5.170e+1, 3.707e-8, 4.160e-8
5.180e+1, 3.702e-8, 4.164e-8
5.190e+1, 3.706e-8, 4.172e-8
5.200e+1, 3.702e-8, 4.175e-8
5.210e+1, 3.703e-8, 4.181e-8
5.220e+1, 3.702e-8, 4.184e-8
5.230e+1, 3.699e-8, 4.187e-8
5.240e+1, 3.698e-8, 4.195e-8
5.250e+1, 3.698e-8, 4.201e-8
5.260e+1, 3.694e-8, 4.205e-8
5.270e+1, 3.696e-8, 4.213e-8
5.280e+1, 3.693e-8, 4.213e-8
5.290e+1, 3.690e-8, 4.219e-8
5.300e+1, 3.691e-8, 4.228e-8
5.310e+1, 3.686e-8, 4.230e-8
5.320e+1, 3.687e-8, 4.239e-8
5.330e+1, 3.687e-8, 4.242e-8
5.340e+1, 3.682e-8, 4.245e-8
5.350e+1, 3.681e-8, 4.251e-8
5.360e+1, 3.680e-8, 4.256e-8
5.370e+1, 3.675e-8, 4.260e-8
5.380e+1, 3.679e-8, 4.267e-8
5.390e+1, 3.673e-8, 4.270e-8
5.400e+1, 3.670e-8, 4.278e-8
5.410e+1, 3.671e-8, 4.282e-8
5.420e+1, 3.666e-8, 4.288e-8
5.430e+1, 3.665e-8, 4.293e-8
5.440e+1, 3.666e-8, 4.295e-8
5.450e+1, 3.663e-8, 4.298e-8
5.460e+1, 3.660e-8, 4.305e-8
5.470e+1, 3.657e-8, 4.306e-8
5.480e+1, 3.655e-8, 4.313e-8
5.490e+1, 3.653e-8, 4.319e-8
5.500e+1, 3.649e-8, 4.318e-8
5.510e+1, 3.647e-8, 4.322e-8
5.520e+1, 3.649e-8, 4.328e-8
5.530e+1, 3.644e-8, 4.327e-8
5.540e+1, 3.642e-8, 4.335e-8
5.550e+1, 3.639e-8, 4.336e-8
5.560e+1, 3.637e-8, 4.340e-8
5.570e+1, 3.636e-8, 4.340e-8
5.580e+1, 3.635e-8, 4.343e-8
5.590e+1, 3.632e-8, 4.342e-8
5.600e+1, 3.633e-8, 4.349e-8
5.610e+1, 3.627e-8, 4.350e-8
5.620e+1, 3.629e-8, 4.353e-8
5.630e+1, 3.625e-8, 4.354e-8
5.640e+1, 3.622e-8, 4.355e-8
5.650e+1, 3.621e-8, 4.358e-8
5.660e+1, 3.620e-8, 4.358e-8
5.670e+1, 3.616e-8, 4.359e-8
5.680e+1, 3.618e-8, 4.366e-8
5.690e+1, 3.613e-8, 4.365e-8
5.700e+1, 3.612e-8, 4.367e-8
5.710e+1, 3.612e-8, 4.370e-8
5.720e+1, 3.608e-8, 4.370e-8
5.730e+1, 3.607e-8, 4.373e-8
5.740e+1, 3.607e-8, 4.375e-8
5.750e+1, 3.601e-8, 4.371e-8
5.760e+1, 3.603e-8, 4.375e-8
5.770e+1, 3.601e-8, 4.372e-8
5.780e+1, 3.598e-8, 4.375e-8
5.790e+1, 3.597e-8, 4.375e-8
5.800e+1, 3.595e-8, 4.371e-8
5.810e+1, 3.594e-8, 4.378e-8
5.820e+1, 3.594e-8, 4.378e-8
5.830e+1, 3.590e-8, 4.374e-8
5.840e+1, 3.590e-8, 4.377e-8
5.850e+1, 3.592e-8, 4.376e-8
5.860e+1, 3.587e-8, 4.374e-8
5.870e+1, 3.587e-8, 4.376e-8
5.880e+1, 3.585e-8, 4.372e-8
5.890e+1, 3.583e-8, 4.370e-8
5.900e+1, 3.584e-8, 4.370e-8
5.910e+1, 3.580e-8, 4.367e-8
5.920e+1, 3.581e-8, 4.370e-8
5.930e+1, 3.580e-8, 4.365e-8
5.940e+1, 3.577e-8, 4.363e-8
5.950e+1, 3.579e-8, 4.366e-8
5.960e+1, 3.578e-8, 4.361e-8
5.970e+1, 3.575e-8, 4.357e-8
5.980e+1, 3.577e-8, 4.360e-8
5.990e+1, 3.573e-8, 4.355e-8
6.000e+1, 3.573e-8, 4.355e-8
6.010e+1, 3.576e-8, 4.353e-8
6.020e+1, 3.572e-8, 4.350e-8
6.030e+1, 3.572e-8, 4.350e-8
6.040e+1, 3.572e-8, 4.344e-8
6.050e+1, 3.569e-8, 4.342e-8
6.060e+1, 3.571e-8, 4.343e-8
6.070e+1, 3.570e-8, 4.336e-8
6.080e+1, 3.568e-8, 4.335e-8
6.090e+1, 3.572e-8, 4.336e-8
6.100e+1, 3.568e-8, 4.330e-8
6.110e+1, 3.567e-8, 4.329e-8
6.120e+1, 3.569e-8, 4.327e-8
6.130e+1, 3.567e-8, 4.319e-8
6.140e+1, 3.569e-8, 4.319e-8
6.150e+1, 3.569e-8, 4.316e-8
6.160e+1, 3.567e-8, 4.308e-8
6.170e+1, 3.569e-8, 4.309e-8
6.180e+1, 3.567e-8, 4.302e-8
6.190e+1, 3.567e-8, 4.301e-8
6.200e+1, 3.569e-8, 4.297e-8
6.210e+1, 3.568e-8, 4.292e-8
6.220e+1, 3.572e-8, 4.288e-8
6.230e+1, 3.573e-8, 4.282e-8
6.240e+1, 3.572e-8, 4.278e-8
6.250e+1, 3.573e-8, 4.279e-8
6.260e+1, 3.573e-8, 4.270e-8
6.270e+1, 3.574e-8, 4.268e-8
6.280e+1, 3.576e-8, 4.262e-8
6.290e+1, 3.575e-8, 4.258e-8
6.300e+1, 3.577e-8, 4.252e-8
6.310e+1, 3.581e-8, 4.248e-8
6.320e+1, 3.578e-8, 4.240e-8
6.330e+1, 3.582e-8, 4.240e-8
6.340e+1, 3.582e-8, 4.232e-8
6.350e+1, 3.582e-8, 4.228e-8
6.360e+1, 3.585e-8, 4.225e-8
6.370e+1, 3.583e-8, 4.222e-8
6.380e+1, 3.585e-8, 4.217e-8
6.390e+1, 3.586e-8, 4.214e-8
6.400e+1, 3.585e-8, 4.206e-8
6.410e+1, 3.588e-8, 4.201e-8
6.420e+1, 3.591e-8, 4.196e-8
6.430e+1, 3.590e-8, 4.190e-8
6.440e+1, 3.595e-8, 4.188e-8
6.450e+1, 3.595e-8, 4.182e-8
6.460e+1, 3.596e-8, 4.175e-8
6.470e+1, 3.599e-8, 4.172e-8
6.480e+1, 3.600e-8, 4.164e-8
6.490e+1, 3.602e-8, 4.162e-8
6.500e+1, 3.604e-8, 4.158e-8
6.510e+1, 3.604e-8, 4.150e-8
6.520e+1, 3.610e-8, 4.145e-8
6.530e+1, 3.611e-8, 4.142e-8
6.540e+1, 3.611e-8, 4.134e-8
6.550e+1, 3.615e-8, 4.134e-8
6.560e+1, 3.615e-8, 4.128e-8
6.570e+1, 3.618e-8, 4.125e-8
6.580e+1, 3.623e-8, 4.119e-8
6.590e+1, 3.622e-8, 4.114e-8
6.600e+1, 3.627e-8, 4.113e-8
6.610e+1, 3.630e-8, 4.107e-8
6.620e+1, 3.629e-8, 4.099e-8
6.630e+1, 3.636e-8, 4.102e-8
6.640e+1, 3.637e-8, 4.095e-8
6.650e+1, 3.638e-8, 4.092e-8
6.660e+1, 3.643e-8, 4.091e-8
6.670e+1, 3.644e-8, 4.084e-8
6.680e+1, 3.648e-8, 4.083e-8
6.690e+1, 3.654e-8, 4.082e-8
6.700e+1, 3.653e-8, 4.077e-8
6.710e+1, 3.657e-8, 4.074e-8
6.720e+1, 3.660e-8, 4.071e-8
6.730e+1, 3.660e-8, 4.070e-8
6.740e+1, 3.666e-8, 4.068e-8
6.750e+1, 3.667e-8, 4.068e-8
6.760e+1, 3.668e-8, 4.063e-8
6.770e+1, 3.674e-8, 4.064e-8
6.780e+1, 3.675e-8, 4.059e-8
6.790e+1, 3.678e-8, 4.059e-8
6.800e+1, 3.682e-8, 4.058e-8
